# Strata OUTPUT -- Response -- 25 (Outcrop) -- Shear Strain Time Series -- manual-example\G01000.AT2
# Example site for the manual figures
# Time (s),S-1
0,4.1224e-06
0.005,4.11678e-06
0.01,4.12436e-06
0.015,4.12924e-06
0.02,4.15228e-06
0.025,4.17547e-06
0.03,4.22607e-06
0.035,4.28448e-06
0.04,4.39096e-06
0.045,4.52907e-06
0.05,4.77506e-06
0.055,5.1493e-06
0.06,5.89661e-06
0.065,7.44287e-06
0.07,1.16073e-05
0.075,1.92873e-05
0.08,2.71015e-05
0.085,3.15392e-05
0.09,3.24948e-05
0.095,3.21546e-05
0.1,3.12206e-05
0.105,2.98801e-05
0.11,2.81955e-05
0.115,2.62708e-05
0.12,2.41516e-05
0.125,2.18885e-05
0.13,1.94716e-05
0.135,1.69321e-05
0.14,1.42665e-05
0.145,1.14815e-05
0.15,8.54939e-06
0.155,5.48529e-06
0.16,2.29605e-06
0.165,-9.81574e-07
0.17,-4.32973e-06
0.175,-7.70068e-06
0.18,-1.10507e-05
0.185,-1.43152e-05
0.19,-1.74962e-05
0.195,-2.0661e-05
0.2,-2.39596e-05
0.205,-2.75739e-05
0.21,-3.17244e-05
0.215,-3.64571e-05
0.22,-4.14312e-05
0.225,-4.60087e-05
0.23,-4.97271e-05
0.235,-5.25205e-05
0.24,-5.45929e-05
0.245,-5.61571e-05
0.25,-5.7368e-05
0.255,-5.82841e-05
0.26,-5.89114e-05
0.265,-5.92401e-05
0.27,-5.92986e-05
0.275,-5.91108e-05
0.28,-5.87096e-05
0.285,-5.81336e-05
0.29,-5.74616e-05
0.295,-5.6772e-05
0.3,-5.60949e-05
0.305,-5.53557e-05
0.31,-5.44663e-05
0.315,-5.33945e-05
0.32,-5.22029e-05
0.325,-5.10581e-05
0.33,-5.0264e-05
0.335,-5.0117e-05
0.34,-5.07608e-05
0.345,-5.21887e-05
0.35,-5.43352e-05
0.355,-5.70294e-05
0.36,-5.99932e-05
0.365,-6.28954e-05
0.37,-6.53978e-05
0.375,-6.71288e-05
0.38,-6.7765e-05
0.385,-6.71637e-05
0.39,-6.54862e-05
0.395,-6.31499e-05
0.4,-6.06639e-05
0.405,-5.84862e-05
0.41,-5.70366e-05
0.415,-5.66814e-05
0.42,-5.76131e-05
0.425,-5.95929e-05
0.43,-6.1873e-05
0.435,-6.35227e-05
0.44,-6.39438e-05
0.445,-6.30635e-05
0.45,-6.12312e-05
0.455,-5.89624e-05
0.46,-5.66757e-05
0.465,-5.45941e-05
0.47,-5.29333e-05
0.475,-5.19592e-05
0.48,-5.17536e-05
0.485,-5.20609e-05
0.49,-5.25944e-05
0.495,-5.34281e-05
0.5,-5.49392e-05
0.505,-5.72865e-05
0.51,-6.00083e-05
0.515,-6.2178e-05
0.52,-6.31972e-05
0.525,-6.33271e-05
0.53,-6.31938e-05
0.535,-6.30666e-05
0.54,-6.30656e-05
0.545,-6.3578e-05
0.55,-6.49073e-05
0.555,-6.67041e-05
0.56,-6.80604e-05
0.565,-6.80343e-05
0.57,-6.61854e-05
0.575,-6.27588e-05
0.58,-5.83659e-05
0.585,-5.34712e-05
0.59,-4.82816e-05
0.595,-4.31434e-05
0.6,-3.88636e-05
0.605,-3.63274e-05
0.61,-3.59329e-05
0.615,-3.75089e-05
0.62,-4.05846e-05
0.625,-4.4691e-05
0.63,-4.95433e-05
0.635,-5.47359e-05
0.64,-5.94281e-05
0.645,-6.27682e-05
0.65,-6.4563e-05
0.655,-6.53138e-05
0.66,-6.58762e-05
0.665,-6.69953e-05
0.67,-6.87028e-05
0.675,-7.02102e-05
0.68,-7.07094e-05
0.685,-6.9987e-05
0.69,-6.81667e-05
0.695,-6.53845e-05
0.7,-6.21271e-05
0.705,-5.95571e-05
0.71,-5.89183e-05
0.715,-6.05271e-05
0.72,-6.39796e-05
0.725,-6.93232e-05
0.73,-7.70914e-05
0.735,-8.68984e-05
0.74,-9.67948e-05
0.745,-0.000104636
0.75,-0.000109973
0.755,-0.000114116
0.76,-0.000118421
0.765,-0.000122998
0.77,-0.000126954
0.775,-0.000129128
0.78,-0.000128575
0.785,-0.000124697
0.79,-0.000116997
0.795,-0.000104983
0.8,-8.87619e-05
0.805,-6.96715e-05
0.81,-5.01745e-05
0.815,-3.31191e-05
0.82,-2.11467e-05
0.825,-1.62883e-05
0.83,-1.91468e-05
0.835,-2.79732e-05
0.84,-3.8968e-05
0.845,-4.82893e-05
0.85,-5.43761e-05
0.855,-5.81944e-05
0.86,-6.14089e-05
0.865,-6.52092e-05
0.87,-7.06965e-05
0.875,-7.89904e-05
0.88,-9.05223e-05
0.885,-0.000104104
0.89,-0.000116441
0.895,-0.000123658
0.9,-0.000124254
0.905,-0.00011989
0.91,-0.000113452
0.915,-0.000107193
0.92,-0.000102296
0.925,-9.8915e-05
0.93,-9.62184e-05
0.935,-9.29243e-05
0.94,-8.80643e-05
0.945,-8.11261e-05
0.95,-7.21272e-05
0.955,-6.19763e-05
0.96,-5.22889e-05
0.965,-4.44999e-05
0.97,-3.94992e-05
0.975,-3.84492e-05
0.98,-4.32474e-05
0.985,-5.51956e-05
0.99,-7.31527e-05
0.995,-9.29622e-05
1,-0.000108855
1.005,-0.000116287
1.01,-0.000113968
1.015,-0.000103256
1.02,-8.62297e-05
1.025,-6.47221e-05
1.03,-4.13913e-05
1.035,-2.13593e-05
1.04,-1.07502e-05
1.045,-1.24412e-05
1.05,-2.40859e-05
1.055,-3.99555e-05
1.06,-5.38825e-05
1.065,-6.14179e-05
1.07,-6.0759e-05
1.075,-5.31789e-05
1.08,-4.35837e-05
1.085,-3.90546e-05
1.09,-4.48769e-05
1.095,-6.26827e-05
1.1,-9.23041e-05
1.105,-0.000132563
1.11,-0.000179568
1.115,-0.000225799
1.12,-0.000261405
1.125,-0.000277083
1.13,-0.000267419
1.135,-0.000233457
1.14,-0.000183535
1.145,-0.000130542
1.15,-8.64218e-05
1.155,-5.90696e-05
1.16,-5.27044e-05
1.165,-6.74461e-05
1.17,-9.79686e-05
1.175,-0.00013436
1.18,-0.000165327
1.185,-0.000181682
1.19,-0.000177792
1.195,-0.000152114
1.2,-0.000109999
1.205,-6.46082e-05
1.21,-3.06862e-05
1.215,-1.71118e-05
1.22,-2.5811e-05
1.225,-5.4566e-05
1.23,-9.90023e-05
1.235,-0.000152929
1.24,-0.000207897
1.245,-0.000254211
1.25,-0.000284183
1.255,-0.000294733
1.26,-0.000286812
1.265,-0.00026346
1.27,-0.000229709
1.275,-0.000193226
1.28,-0.000161961
1.285,-0.000139697
1.29,-0.000124982
1.295,-0.000114885
1.3,-0.000108863
1.305,-0.000108621
1.31,-0.000114996
1.315,-0.000126355
1.32,-0.000140611
1.325,-0.000158554
1.33,-0.000184243
1.335,-0.000220043
1.34,-0.000261342
1.345,-0.000297655
1.35,-0.000318432
1.355,-0.000316681
1.36,-0.00028784
1.365,-0.000228654
1.37,-0.000140948
1.375,-3.68978e-05
1.38,6.27127e-05
1.385,0.000138519
1.39,0.000181277
1.395,0.000192919
1.4,0.000182947
1.405,0.000163268
1.41,0.000143554
1.415,0.000129143
1.42,0.000120116
1.425,0.00011097
1.43,9.36429e-05
1.435,6.21758e-05
1.44,1.36028e-05
1.445,-5.25616e-05
1.45,-0.000131862
1.455,-0.000212905
1.46,-0.000278897
1.465,-0.000311993
1.47,-0.000299453
1.475,-0.000238922
1.48,-0.000140704
1.485,-2.6409e-05
1.49,7.70444e-05
1.495,0.000145251
1.5,0.000160046
1.505,0.000110568
1.51,-2.52985e-06
1.515,-0.000163272
1.52,-0.000343907
1.525,-0.000513475
1.53,-0.000645793
1.535,-0.000724707
1.54,-0.00074717
1.545,-0.000724975
1.55,-0.000681781
1.555,-0.000642816
1.56,-0.00062333
1.565,-0.000623941
1.57,-0.000634337
1.575,-0.00064039
1.58,-0.000627893
1.585,-0.000582377
1.59,-0.000492226
1.595,-0.000358099
1.6,-0.000198713
1.605,-4.30059e-05
1.61,8.33377e-05
1.615,0.000164746
1.62,0.000197801
1.625,0.000191178
1.63,0.000159213
1.635,0.000112496
1.64,5.54419e-05
1.645,-8.0083e-06
1.65,-6.88329e-05
1.655,-0.000114705
1.66,-0.000139395
1.665,-0.000150876
1.67,-0.000166758
1.675,-0.000199898
1.68,-0.00024955
1.685,-0.000304148
1.69,-0.000347736
1.695,-0.000364055
1.7,-0.000341892
1.705,-0.000283604
1.71,-0.000207988
1.715,-0.000139995
1.72,-9.50405e-05
1.725,-7.25642e-05
1.73,-6.40967e-05
1.735,-6.75732e-05
1.74,-9.44309e-05
1.745,-0.000161943
1.75,-0.000276778
1.755,-0.000425302
1.76,-0.000579731
1.765,-0.000713259
1.77,-0.000811313
1.775,-0.00087254
1.78,-0.000900637
1.785,-0.000895378
1.79,-0.000854353
1.795,-0.000783736
1.8,-0.000701493
1.805,-0.00062676
1.81,-0.000568735
1.815,-0.000525289
1.82,-0.000487122
1.825,-0.000442998
1.83,-0.00038546
1.835,-0.000313026
1.84,-0.000227322
1.845,-0.000130049
1.85,-2.41543e-05
1.855,8.03682e-05
1.86,0.0001626
1.865,0.000195907
1.87,0.000159843
1.875,5.30951e-05
1.88,-0.000100043
1.885,-0.000259296
1.89,-0.000387698
1.895,-0.000461701
1.9,-0.000468739
1.905,-0.00040326
1.91,-0.000268343
1.915,-8.24927e-05
1.92,0.000116519
1.925,0.000280099
1.93,0.000367274
1.935,0.000362486
1.94,0.00028367
1.945,0.00017308
1.95,7.43535e-05
1.955,1.69313e-05
1.96,1.73599e-05
1.965,8.24987e-05
1.97,0.000207196
1.975,0.000373217
1.98,0.00054997
1.985,0.000697416
1.99,0.0007757
1.995,0.000759181
2,0.000647461
2.005,0.000464881
2.01,0.000246757
2.015,2.46547e-05
2.02,-0.000178773
2.025,-0.000347214
2.03,-0.000467263
2.035,-0.000530447
2.04,-0.000539748
2.045,-0.000510572
2.05,-0.000466322
2.055,-0.000434411
2.06,-0.000434146
2.065,-0.000461322
2.07,-0.000492809
2.075,-0.00050737
2.08,-0.000498489
2.085,-0.000472239
2.09,-0.000437815
2.095,-0.000399838
2.1,-0.000359527
2.105,-0.000322376
2.11,-0.00030146
2.115,-0.000309983
2.12,-0.000350102
2.125,-0.000411456
2.13,-0.000479145
2.135,-0.000536287
2.14,-0.000559549
2.145,-0.000523444
2.15,-0.000415766
2.155,-0.000248269
2.16,-5.13392e-05
2.165,0.000145075
2.17,0.000327865
2.175,0.000494195
2.18,0.000628215
2.185,0.000695032
2.19,0.000667459
2.195,0.000557603
2.2,0.000414133
2.205,0.000283825
2.21,0.000179662
2.215,8.69536e-05
2.22,-9.64124e-06
2.225,-0.000110068
2.23,-0.000200536
2.235,-0.000262019
2.24,-0.00028034
2.245,-0.000256229
2.25,-0.000206003
2.255,-0.000148239
2.26,-8.95719e-05
2.265,-2.62021e-05
2.27,3.87161e-05
2.275,8.12046e-05
2.28,6.93194e-05
2.285,-1.24464e-06
2.29,-9.07342e-05
2.295,-0.000144774
2.3,-0.000135961
2.305,-7.33947e-05
2.31,1.9196e-05
2.315,0.000126712
2.32,0.000245853
2.325,0.000373824
2.33,0.000499503
2.335,0.000602684
2.34,0.00066064
2.345,0.000658766
2.35,0.00059716
2.355,0.000490941
2.36,0.000365966
2.365,0.000248442
2.37,0.000152863
2.375,7.75911e-05
2.38,1.24725e-05
2.385,-4.73935e-05
2.39,-9.82378e-05
2.395,-0.000140671
2.4,-0.000190535
2.405,-0.000270873
2.41,-0.000393436
2.415,-0.000547017
2.42,-0.000702431
2.425,-0.000832462
2.43,-0.000928543
2.435,-0.000996936
2.44,-0.00104289
2.445,-0.00106327
2.45,-0.00105271
2.455,-0.00101223
2.46,-0.000950552
2.465,-0.000881467
2.47,-0.000821137
2.475,-0.000782072
2.48,-0.000765309
2.485,-0.000756457
2.49,-0.000731093
2.495,-0.000670241
2.5,-0.000571131
2.505,-0.000439893
2.51,-0.000279506
2.515,-9.18633e-05
2.52,0.00011141
2.525,0.00030499
2.53,0.000458419
2.535,0.000551668
2.54,0.000584388
2.545,0.000571824
2.55,0.00053431
2.555,0.000489019
2.56,0.000448286
2.565,0.000423849
2.57,0.000428143
2.575,0.000467771
2.58,0.000535503
2.585,0.000609665
2.59,0.00066398
2.595,0.000677799
2.6,0.000637295
2.605,0.000535303
2.61,0.000378011
2.615,0.000190092
2.62,7.32573e-06
2.625,-0.000138168
2.63,-0.00022954
2.635,-0.000270083
2.64,-0.000278629
2.645,-0.000278089
2.65,-0.00028725
2.655,-0.000317949
2.66,-0.000373838
2.665,-0.000451125
2.67,-0.000540326
2.675,-0.000627605
2.68,-0.000695997
2.685,-0.000726818
2.69,-0.000703129
2.695,-0.000614887
2.7,-0.000464539
2.705,-0.000271207
2.71,-6.61556e-05
2.715,0.000120894
2.72,0.00027075
2.725,0.00037331
2.73,0.000425781
2.735,0.000434905
2.74,0.000418575
2.745,0.000403686
2.75,0.000419044
2.755,0.000485068
2.76,0.000605708
2.765,0.000767621
2.77,0.000948112
2.775,0.00112776
2.78,0.00129674
2.785,0.00145032
2.79,0.00158402
2.795,0.00169586
2.8,0.00179019
2.805,0.00187695
2.81,0.00196745
2.815,0.00207158
2.82,0.00219648
2.825,0.00234267
2.83,0.00249905
2.835,0.00264343
2.84,0.0027505
2.845,0.00280252
2.85,0.00279901
2.855,0.00276131
2.86,0.00272592
2.865,0.0027311
2.87,0.00280612
2.875,0.00296446
2.88,0.00320266
2.885,0.00350432
2.89,0.00384169
2.895,0.00417733
2.9,0.00447021
2.905,0.00467958
2.91,0.00476727
2.915,0.00471127
2.92,0.00452226
2.925,0.00423792
2.93,0.0039019
2.935,0.00355295
2.94,0.00322684
2.945,0.00295602
2.95,0.00275962
2.955,0.00263424
2.96,0.00255714
2.965,0.00249497
2.97,0.00240991
2.975,0.00226848
2.98,0.00205094
2.985,0.00175258
2.99,0.00138103
2.995,0.000953252
3,0.000489589
3.005,9.55076e-06
3.01,-0.000468787
3.015,-0.000930833
3.02,-0.00136854
3.025,-0.00178132
3.03,-0.0021752
3.035,-0.00255795
3.04,-0.00293078
3.045,-0.00328441
3.05,-0.00360441
3.055,-0.00387909
3.06,-0.00410244
3.065,-0.00427179
3.07,-0.00438401
3.075,-0.00443574
3.08,-0.00442797
3.085,-0.00436858
3.09,-0.00426932
3.095,-0.00414141
3.1,-0.00399384
3.105,-0.00383331
3.11,-0.00366236
3.115,-0.00347755
3.12,-0.00327252
3.125,-0.00304318
3.13,-0.00278805
3.135,-0.00250427
3.14,-0.00218473
3.145,-0.00182175
3.15,-0.00141437
3.155,-0.000969604
3.16,-0.000493577
3.165,1.64983e-05
3.17,0.000568718
3.175,0.00116586
3.18,0.00180046
3.185,0.00246085
3.19,0.0031381
3.195,0.00382459
3.2,0.00451058
3.205,0.00518759
3.21,0.00585381
3.215,0.00651208
3.22,0.00716373
3.225,0.00780722
3.23,0.00844204
3.235,0.00906957
3.24,0.0096884
3.245,0.0102936
3.25,0.0108827
3.255,0.0114561
3.26,0.0120112
3.265,0.0125437
3.27,0.0130534
3.275,0.013542
3.28,0.0140041
3.285,0.0144229
3.29,0.0147747
3.295,0.0150334
3.3,0.0151736
3.305,0.0151716
3.31,0.0150059
3.315,0.0146637
3.32,0.0141492
3.325,0.013484
3.33,0.0126949
3.335,0.0117984
3.34,0.0107996
3.345,0.00970146
3.35,0.00850992
3.355,0.00723254
3.36,0.00587863
3.365,0.00446079
3.37,0.00299264
3.375,0.00148462
3.38,-5.66115e-05
3.385,-0.00162478
3.39,-0.00321121
3.395,-0.00480489
3.4,-0.00639405
3.405,-0.00796789
3.41,-0.00951867
3.415,-0.0110441
3.42,-0.0125477
3.425,-0.0140322
3.43,-0.0154914
3.435,-0.0169033
3.44,-0.0182289
3.445,-0.0194126
3.45,-0.0203861
3.455,-0.0210777
3.46,-0.0214279
3.465,-0.0214043
3.47,-0.0210156
3.475,-0.0203216
3.48,-0.0194146
3.485,-0.0183687
3.49,-0.0172171
3.495,-0.0159848
3.5,-0.0147237
3.505,-0.0135072
3.51,-0.012399
3.515,-0.0114285
3.52,-0.0105854
3.525,-0.00983112
3.53,-0.00911439
3.535,-0.0083869
3.54,-0.00761672
3.545,-0.00679461
3.55,-0.00592943
3.555,-0.00503666
3.56,-0.00412947
3.565,-0.00321967
3.57,-0.00232409
3.575,-0.00146736
3.58,-0.00067967
3.585,9.78618e-06
3.59,0.000581293
3.595,0.00102655
3.6,0.00134278
3.605,0.00153154
3.61,0.00160661
3.615,0.00159827
3.62,0.00154483
3.625,0.00147944
3.63,0.00142462
3.635,0.00139568
3.64,0.00140813
3.645,0.00148666
3.65,0.00166882
3.655,0.00199286
3.66,0.00247559
3.665,0.00310279
3.67,0.00383917
3.675,0.00464587
3.68,0.00549304
3.685,0.00636308
3.69,0.0072468
3.695,0.00813756
3.7,0.00902707
3.705,0.00990337
3.71,0.0107508
3.715,0.011553
3.72,0.0122965
3.725,0.0129706
3.73,0.0135632
3.735,0.0140564
3.74,0.0144256
3.745,0.0146456
3.75,0.0146969
3.755,0.0145671
3.76,0.01425
3.765,0.0137458
3.77,0.0130641
3.775,0.0122269
3.78,0.0112636
3.785,0.0102017
3.79,0.00906204
3.795,0.00786104
3.8,0.00661524
3.805,0.00534437
3.81,0.00407263
3.815,0.00282576
3.82,0.00162593
3.825,0.000488642
3.83,-0.000576624
3.835,-0.00156267
3.84,-0.00246121
3.845,-0.00325986
3.85,-0.00393886
3.855,-0.00447263
3.86,-0.00483998
3.865,-0.00503746
3.87,-0.00508569
3.875,-0.00502224
3.88,-0.00488398
3.885,-0.00469137
3.89,-0.0044454
3.895,-0.00413871
3.9,-0.00377187
3.905,-0.00335948
3.91,-0.00291992
3.915,-0.00246303
3.92,-0.00198876
3.925,-0.00149203
3.93,-0.000968181
3.935,-0.000418867
3.94,0.000146054
3.945,0.000712457
3.95,0.00126484
3.955,0.00178669
3.96,0.00226212
3.965,0.00267771
3.97,0.00302285
3.975,0.00328854
3.98,0.00346456
3.985,0.00353789
3.99,0.00349805
3.995,0.00334605
4,0.00309562
4.005,0.00276597
4.01,0.00237558
4.015,0.00194151
4.02,0.00148138
4.025,0.00101385
4.03,0.000554748
4.035,0.000111218
4.04,-0.000318873
4.045,-0.000741701
4.05,-0.0011647
4.055,-0.00159668
4.06,-0.00204483
4.065,-0.00251218
4.07,-0.00299853
4.075,-0.00350215
4.08,-0.00402079
4.085,-0.00455162
4.09,-0.00509167
4.095,-0.0056384
4.1,-0.00618796
4.105,-0.00673197
4.11,-0.00725678
4.115,-0.00774513
4.12,-0.00817744
4.125,-0.00853302
4.13,-0.00879283
4.135,-0.00894281
4.14,-0.00898165
4.145,-0.00893031
4.15,-0.00882713
4.155,-0.0087079
4.16,-0.00859241
4.165,-0.00848778
4.17,-0.00839749
4.175,-0.00832421
4.18,-0.00826637
4.185,-0.00821654
4.19,-0.00816434
4.195,-0.00810048
4.2,-0.00801794
4.205,-0.00790917
4.21,-0.00776469
4.215,-0.00757687
4.22,-0.00734524
4.225,-0.00707662
4.23,-0.00678077
4.235,-0.00646685
4.24,-0.00614276
4.245,-0.00581516
4.25,-0.0054892
4.255,-0.00516951
4.26,-0.00486394
4.265,-0.00458463
4.27,-0.00434206
4.275,-0.00413986
4.28,-0.00397468
4.285,-0.00383508
4.29,-0.00369779
4.295,-0.00352873
4.3,-0.00329378
4.305,-0.00297715
4.31,-0.00259429
4.315,-0.00218034
4.32,-0.00176113
4.325,-0.00134093
4.33,-0.000916976
4.335,-0.000494865
4.34,-8.73864e-05
4.345,0.000294946
4.35,0.000648677
4.355,0.000976909
4.36,0.00128937
4.365,0.00159996
4.37,0.00191892
4.375,0.00224792
4.38,0.00258204
4.385,0.00291473
4.39,0.0032441
4.395,0.00357814
4.4,0.00393179
4.405,0.00431614
4.41,0.00473128
4.415,0.00517001
4.42,0.00562441
4.425,0.00608322
4.43,0.00652269
4.435,0.00690498
4.44,0.00719275
4.445,0.0073697
4.45,0.00744378
4.455,0.00743019
4.46,0.00733677
4.465,0.00716532
4.47,0.00692234
4.475,0.00662593
4.48,0.00630069
4.485,0.00596887
4.49,0.00564835
4.495,0.00535444
4.5,0.00510063
4.505,0.00489743
4.51,0.00475023
4.515,0.00465896
4.52,0.00461713
4.525,0.00460959
4.53,0.00461503
4.535,0.00461061
4.54,0.00457406
4.545,0.0044876
4.55,0.00434286
4.555,0.00414007
4.56,0.00388487
4.565,0.00358804
4.57,0.00326796
4.575,0.00295167
4.58,0.0026701
4.585,0.00244935
4.59,0.00230406
4.595,0.00223708
4.6,0.0022436
4.605,0.00231462
4.61,0.00243502
4.615,0.00258051
4.62,0.00272002
4.625,0.0028216
4.63,0.00285917
4.635,0.0028161
4.64,0.0026828
4.645,0.00245425
4.65,0.00212992
4.655,0.00171403
4.66,0.00121818
4.665,0.000662043
4.67,6.81038e-05
4.675,-0.000542604
4.68,-0.00114944
4.685,-0.00173127
4.69,-0.00227036
4.695,-0.0027559
4.7,-0.00318398
4.705,-0.00355761
4.71,-0.00388692
4.715,-0.00418581
4.72,-0.00446805
4.725,-0.0047456
4.73,-0.00502656
4.735,-0.00531268
4.74,-0.00559944
4.745,-0.00587942
4.75,-0.00614603
4.755,-0.00639378
4.76,-0.00661436
4.765,-0.00679326
4.77,-0.00691027
4.775,-0.00694389
4.78,-0.00687855
4.785,-0.00670943
4.79,-0.00644023
4.795,-0.00607871
4.8,-0.00563737
4.805,-0.00513912
4.81,-0.00462041
4.815,-0.00412392
4.82,-0.00368687
4.825,-0.00333541
4.83,-0.00308227
4.835,-0.00292684
4.84,-0.00286444
4.845,-0.00289411
4.85,-0.00301413
4.855,-0.00321344
4.86,-0.00346974
4.865,-0.00375556
4.87,-0.00404444
4.875,-0.00431212
4.88,-0.00453721
4.885,-0.00470378
4.89,-0.00480402
4.895,-0.00483976
4.9,-0.00482014
4.905,-0.0047571
4.91,-0.00466584
4.915,-0.00456684
4.92,-0.00447871
4.925,-0.00440435
4.93,-0.0043243
4.935,-0.00420854
4.94,-0.00404032
4.945,-0.00382765
4.95,-0.00358922
4.955,-0.00333215
4.96,-0.00304539
4.965,-0.00271185
4.97,-0.00232444
4.975,-0.00189159
4.98,-0.00142897
4.985,-0.00094596
4.99,-0.000440315
4.995,9.62419e-05
5,0.000670228
5.005,0.00128272
5.01,0.00192966
5.015,0.00260296
5.02,0.00329183
5.025,0.00398598
5.03,0.00467664
5.035,0.0053524
5.04,0.00599508
5.045,0.00658261
5.05,0.00709864
5.055,0.00753895
5.06,0.00790716
5.065,0.00820578
5.07,0.00843077
5.075,0.00857172
5.08,0.00861642
5.085,0.00855827
5.09,0.00840152
5.095,0.0081577
5.1,0.00783847
5.105,0.00745355
5.11,0.00701227
5.115,0.00652463
5.12,0.00600281
5.125,0.00546373
5.13,0.00492619
5.135,0.00440327
5.14,0.00390151
5.145,0.00342824
5.15,0.00299573
5.155,0.00261678
5.16,0.00229831
5.165,0.00203867
5.17,0.00182483
5.175,0.00162932
5.18,0.00141464
5.185,0.00114464
5.19,0.000796583
5.195,0.000370633
5.2,-0.000113876
5.205,-0.000637524
5.21,-0.00119064
5.215,-0.00176288
5.22,-0.00233063
5.225,-0.00285581
5.23,-0.00329575
5.235,-0.00361583
5.24,-0.00379609
5.245,-0.00383107
5.25,-0.00373102
5.255,-0.00352486
5.26,-0.00325579
5.265,-0.00297051
5.27,-0.00271121
5.275,-0.00251036
5.28,-0.00238687
5.285,-0.00235011
5.29,-0.00240666
5.295,-0.00255661
5.3,-0.00278884
5.305,-0.00308424
5.31,-0.00341747
5.315,-0.00375611
5.32,-0.00406398
5.325,-0.00430794
5.33,-0.00446486
5.335,-0.00452548
5.34,-0.00449393
5.345,-0.00438311
5.35,-0.00420959
5.355,-0.00399191
5.36,-0.00374927
5.365,-0.0034975
